# rtl-power-fftw output
# Acquisition start: 2025-03-23 12:20:12 UTC
# Acquisition end: 2025-03-23 12:20:22 UTC
#
# frequency [Hz] power spectral density [dB/Hz]
4.415e+08 -52.37
4.4150391e+08 -52.2902
4.4150781e+08 -52.4414
4.4151172e+08 -52.2224
4.4151562e+08 -52.3439
4.4151953e+08 -52.4543
4.4152344e+08 -52.4631
4.4152734e+08 -52.343
4.4153125e+08 -52.4671
4.4153516e+08 -52.3416
4.4153906e+08 -52.3702
4.4154297e+08 -52.4115
4.4154688e+08 -52.1098
4.4155078e+08 -52.4108
4.4155469e+08 -52.3757
4.4155859e+08 -52.1963
4.415625e+08 -52.0688
4.4156641e+08 -52.1886
4.4157031e+08 -51.8842
4.4157422e+08 -52.1226
4.4157812e+08 -52.109
4.4158203e+08 -51.7982
4.4158594e+08 -51.9172
4.4158984e+08 -51.7034
4.4159375e+08 -51.8044
4.4159766e+08 -51.6152
4.4160156e+08 -51.1594
4.4160547e+08 -51.653
4.4160938e+08 -51.2605
4.4161328e+08 -51.4034
4.4161719e+08 -51.4487
4.4162109e+08 -51.345
4.41625e+08 -51.1717
4.4162891e+08 -50.7749
4.4163281e+08 -50.6602
4.4163672e+08 -50.5199
4.4164062e+08 -50.8854
4.4164453e+08 -50.6772
4.4164844e+08 -50.5624
4.4165234e+08 -50.6921
4.4165625e+08 -50.3602
4.4166016e+08 -50.5646
4.4166406e+08 -50.3176
4.4166797e+08 -50.2605
4.4167188e+08 -50.2381
4.4167578e+08 -50.157
4.4167969e+08 -49.8862
4.4168359e+08 -49.9014
4.416875e+08 -49.9944
4.4169141e+08 -49.8234
4.4169531e+08 -49.7402
4.4169922e+08 -49.6776
4.4170312e+08 -49.4716
4.4170703e+08 -49.7196
4.4171094e+08 -49.4183
4.4171484e+08 -49.4419
4.4171875e+08 -49.5314
4.4172266e+08 -49.315
4.4172656e+08 -49.3548
4.4173047e+08 -49.2552
4.4173438e+08 -49.0452
4.4173828e+08 -49.2486
4.4174219e+08 -49.1863
4.4174609e+08 -48.8233
4.4175e+08 -48.986
4.4175391e+08 -49.014
4.4175781e+08 -48.8972
4.4176172e+08 -48.9768
4.4176562e+08 -48.2681
4.4176953e+08 -48.7916
4.4177344e+08 -48.9425
4.4177734e+08 -48.8169
4.4178125e+08 -48.8223
4.4178516e+08 -48.7979
4.4178906e+08 -48.5499
4.4179297e+08 -48.7681
4.4179688e+08 -48.7355
4.4180078e+08 -48.4354
4.4180469e+08 -48.6755
4.4180859e+08 -48.536
4.418125e+08 -48.3643
4.4181641e+08 -48.3023
4.4182031e+08 -48.4414
4.4182422e+08 -48.5539
4.4182812e+08 -48.5698
4.4183203e+08 -48.4734
4.4183594e+08 -48.4833
4.4183984e+08 -48.4464
4.4184375e+08 -48.5157
4.4184766e+08 -48.4426
4.4185156e+08 -48.4626
4.4185547e+08 -48.4301
4.4185938e+08 -48.5001
4.4186328e+08 -48.3645
4.4186719e+08 -47.9445
4.4187109e+08 -48.3998
4.41875e+08 -48.1824
4.4187891e+08 -48.1114
4.4188281e+08 -48.3621
4.4188672e+08 -48.2384
4.4189062e+08 -48.3362
4.4189453e+08 -48.3562
4.4189844e+08 -47.9994
4.4190234e+08 -48.3577
4.4190625e+08 -48.4821
4.4191016e+08 -48.3176
4.4191406e+08 -48.3671
4.4191797e+08 -48.4994
4.4192188e+08 -48.3812
4.4192578e+08 -48.442
4.4192969e+08 -48.4385
4.4193359e+08 -48.1539
4.419375e+08 -48.4376
4.4194141e+08 -48.3565
4.4194531e+08 -48.4252
4.4194922e+08 -48.2334
4.4195312e+08 -48.4323
4.4195703e+08 -48.5184
4.4196094e+08 -48.3617
4.4196484e+08 -48.3658
4.4196875e+08 -48.4785
4.4197266e+08 -48.3688
4.4197656e+08 -48.3088
4.4198047e+08 -48.6326
4.4198438e+08 -48.5802
4.4198828e+08 -48.5862
4.4199219e+08 -48.5426
4.4199609e+08 -48.6018
4.42e+08 -48.4697
4.4200391e+08 -48.5246
4.4200781e+08 -48.5796
4.4201172e+08 -48.6701
4.4201562e+08 -48.6649
4.4201953e+08 -48.5969
4.4202344e+08 -48.7566
4.4202734e+08 -48.6073
4.4203125e+08 -48.4131
4.4203516e+08 -48.2663
4.4203906e+08 -48.6904
4.4204297e+08 -48.5392
4.4204688e+08 -48.8028
4.4205078e+08 -48.722
4.4205469e+08 -48.6399
4.4205859e+08 -48.6926
4.420625e+08 -48.8069
4.4206641e+08 -48.7674
4.4207031e+08 -48.8034
4.4207422e+08 -48.7946
4.4207812e+08 -48.7114
4.4208203e+08 -48.7591
4.4208594e+08 -48.5652
4.4208984e+08 -48.7681
4.4209375e+08 -48.8486
4.4209766e+08 -48.4857
4.4210156e+08 -48.8871
4.4210547e+08 -48.7723
4.4210938e+08 -48.6375
4.4211328e+08 -48.9446
4.4211719e+08 -48.7994
4.4212109e+08 -48.9193
4.42125e+08 -48.9061
4.4212891e+08 -48.9274
4.4213281e+08 -48.9638
4.4213672e+08 -48.9466
4.4214062e+08 -48.7904
4.4214453e+08 -48.9453
4.4214844e+08 -48.8529
4.4215234e+08 -48.818
4.4215625e+08 -48.9636
4.4216016e+08 -48.8933
4.4216406e+08 -48.7595
4.4216797e+08 -48.3961
4.4217188e+08 -48.921
4.4217578e+08 -48.9429
4.4217969e+08 -48.9899
4.4218359e+08 -48.7545
4.421875e+08 -48.8537
4.4219141e+08 -48.8155
4.4219531e+08 -48.6731
4.4219922e+08 -48.8323
4.4220312e+08 -48.8402
4.4220703e+08 -48.508
4.4221094e+08 -48.8367
4.4221484e+08 -48.7804
4.4221875e+08 -48.3994
4.4222266e+08 -48.9052
4.4222656e+08 -48.8633
4.4223047e+08 -48.725
4.4223438e+08 -48.8569
4.4223828e+08 -48.6536
4.4224219e+08 -48.76
4.4224609e+08 -48.831
4.4225e+08 -48.6754
4.4225391e+08 -48.8212
4.4225781e+08 -48.8681
4.4226172e+08 -48.5185
4.4226562e+08 -48.85
4.4226953e+08 -48.8091
4.4227344e+08 -48.5471
4.4227734e+08 -48.7428
4.4228125e+08 -48.703
4.4228516e+08 -48.7556
4.4228906e+08 -48.7687
4.4229297e+08 -48.7057
4.4229688e+08 -48.6483
4.4230078e+08 -48.5737
4.4230469e+08 -48.5733
4.4230859e+08 -48.7568
4.423125e+08 -48.6817
4.4231641e+08 -48.5797
4.4232031e+08 -48.5835
4.4232422e+08 -48.5688
4.4232812e+08 -46.8102
4.4233203e+08 -44.7945
4.4233594e+08 -46.9693
4.4233984e+08 -48.1806
4.4234375e+08 -48.559
4.4234766e+08 -48.3578
4.4235156e+08 -48.4157
4.4235547e+08 -48.5471
4.4235938e+08 -48.4449
4.4236328e+08 -48.301
4.4236719e+08 -48.4622
4.4237109e+08 -48.2956
4.42375e+08 -47.9668
4.4237891e+08 -41.0742
4.4238281e+08 -46.9237
4.4238672e+08 -48.1851
4.4239062e+08 -48.4602
4.4239453e+08 -48.2006
4.4239844e+08 -48.5096
4.4240234e+08 -48.4193
4.4240625e+08 -48.3771
4.4241016e+08 -48.5836
4.4241406e+08 -48.426
4.4241797e+08 -48.4652
4.4242188e+08 -48.5949
4.4242578e+08 -48.3636
4.4242969e+08 -48.5857
4.4243359e+08 -48.5858
4.424375e+08 -47.8423
4.4244141e+08 -48.4747
4.4244531e+08 -48.5348
4.4244922e+08 -48.4571
4.4245312e+08 -48.47
4.4245703e+08 -48.5539
4.4246094e+08 -48.4252
4.4246484e+08 -48.4829
4.4246875e+08 -48.457
4.4247266e+08 -48.5733
4.4247656e+08 -48.6027
4.4248047e+08 -48.4876
4.4248438e+08 -48.6079
4.4248828e+08 -48.289
4.4249219e+08 -48.4085
4.4249609e+08 -48.6344
4.425e+08 -48.4126
4.4250391e+08 -48.2016
4.4250781e+08 -48.5793
4.4251172e+08 -48.4572
4.4251562e+08 -48.4017
4.4251953e+08 -48.612
4.4252344e+08 -48.6581
4.4252734e+08 -48.5714
4.4253125e+08 -48.6668
4.4253516e+08 -48.6697
4.4253906e+08 -48.6551
4.4254297e+08 -48.6793
4.4254688e+08 -48.6491
4.4255078e+08 -48.6866
4.4255469e+08 -48.6375
4.4255859e+08 -48.2704
4.425625e+08 -48.7609
4.4256641e+08 -48.5168
4.4257031e+08 -47.9579
4.4257422e+08 -48.695
4.4257812e+08 -48.6659
4.4258203e+08 -48.6772
4.4258594e+08 -48.6959
4.4258984e+08 -48.749
4.4259375e+08 -48.8298
4.4259766e+08 -48.8242
4.4260156e+08 -48.8137
4.4260547e+08 -48.7915
4.4260938e+08 -48.8694
4.4261328e+08 -48.7726
4.4261719e+08 -48.7889
4.4262109e+08 -48.8306
4.42625e+08 -48.6
4.4262891e+08 -49.0097
4.4263281e+08 -48.8021
4.4263672e+08 -48.8856
4.4264062e+08 -48.9872
4.4264453e+08 -48.8154
4.4264844e+08 -48.9173
4.4265234e+08 -48.9214
4.4265625e+08 -48.8368
4.4266016e+08 -49.0267
4.4266406e+08 -48.9092
4.4266797e+08 -48.8577
4.4267188e+08 -48.9373
4.4267578e+08 -48.9821
4.4267969e+08 -49.0675
4.4268359e+08 -49.1054
4.426875e+08 -49.0918
4.4269141e+08 -48.9802
4.4269531e+08 -49.164
4.4269922e+08 -49.1515
4.4270312e+08 -49.0695
4.4270703e+08 -48.8766
4.4271094e+08 -49.1296
4.4271484e+08 -49.1351
4.4271875e+08 -49.0966
4.4272266e+08 -48.8506
4.4272656e+08 -49.2223
4.4273047e+08 -49.1419
4.4273438e+08 -48.8453
4.4273828e+08 -49.2051
4.4274219e+08 -49.1276
4.4274609e+08 -49.1958
4.4275e+08 -49.2756
4.4275391e+08 -49.253
4.4275781e+08 -49.2119
4.4276172e+08 -49.3408
4.4276562e+08 -49.2993
4.4276953e+08 -49.274
4.4277344e+08 -49.2589
4.4277734e+08 -49.2644
4.4278125e+08 -49.2796
4.4278516e+08 -49.3711
4.4278906e+08 -48.7238
4.4279297e+08 -49.3559
4.4279688e+08 -49.3904
4.4280078e+08 -49.1057
4.4280469e+08 -49.3575
4.4280859e+08 -49.3082
4.428125e+08 -49.3394
4.4281641e+08 -49.419
4.4282031e+08 -49.3911
4.4282422e+08 -49.3867
4.4282812e+08 -49.373
4.4283203e+08 -49.1985
4.4283594e+08 -49.3517
4.4283984e+08 -48.931
4.4284375e+08 -49.4103
4.4284766e+08 -49.3315
4.4285156e+08 -49.409
4.4285547e+08 -49.0688
4.4285938e+08 -49.4368
4.4286328e+08 -49.358
4.4286719e+08 -49.3089
4.4287109e+08 -49.4115
4.42875e+08 -49.3297
4.4287891e+08 -49.2522
4.4288281e+08 -49.3118
4.4288672e+08 -49.1492
4.4289062e+08 -49.2286
4.4289453e+08 -49.3262
4.4289844e+08 -49.0377
4.4290234e+08 -49.3598
4.4290625e+08 -49.226
4.4291016e+08 -49.1836
4.4291406e+08 -49.1219
4.4291797e+08 -49.3175
4.4292188e+08 -49.2098
4.4292578e+08 -49.2812
4.4292969e+08 -49.2911
4.4293359e+08 -49.1822
4.429375e+08 -49.2602
4.4294141e+08 -49.149
4.4294531e+08 -49.2163
4.4294922e+08 -49.2367
4.4295312e+08 -48.8637
4.4295703e+08 -49.1582
4.4296094e+08 -49.1408
4.4296484e+08 -48.6464
4.4296875e+08 -49.0819
4.4297266e+08 -48.7001
4.4297656e+08 -48.8209
4.4298047e+08 -49.0554
4.4298438e+08 -49.0837
4.4298828e+08 -49.0438
4.4299219e+08 -49.0079
4.4299609e+08 -48.9675
4.43e+08 -48.9256
4.4300391e+08 -48.9751
4.4300781e+08 -48.8273
4.4301172e+08 -48.9997
4.4301562e+08 -48.9408
4.4301953e+08 -48.8379
4.4302344e+08 -48.9278
4.4302734e+08 -48.859
4.4303125e+08 -48.7042
4.4303516e+08 -48.9464
4.4303906e+08 -48.7775
4.4304297e+08 -48.7649
4.4304688e+08 -48.84
4.4305078e+08 -48.7365
4.4305469e+08 -48.7136
4.4305859e+08 -48.8354
4.430625e+08 -48.7776
4.4306641e+08 -48.8467
4.4307031e+08 -48.7594
4.4307422e+08 -48.755
4.4307812e+08 -48.7679
4.4308203e+08 -48.8518
4.4308594e+08 -48.4787
4.4308984e+08 -48.684
4.4309375e+08 -48.6696
4.4309766e+08 -48.6518
4.4310156e+08 -48.8042
4.4310547e+08 -48.6352
4.4310938e+08 -48.4503
4.4311328e+08 -48.7787
4.4311719e+08 -48.7212
4.4312109e+08 -48.7319
4.43125e+08 -48.7212
4.4312891e+08 -48.7053
4.4313281e+08 -48.685
4.4313672e+08 -48.6464
4.4314062e+08 -48.7603
4.4314453e+08 -48.7008
4.4314844e+08 -48.7752
4.4315234e+08 -48.6008
4.4315625e+08 -48.7797
4.4316016e+08 -48.7268
4.4316406e+08 -48.7789
4.4316797e+08 -48.7451
4.4317188e+08 -48.7917
4.4317578e+08 -48.762
4.4317969e+08 -48.7981
4.4318359e+08 -48.6677
4.431875e+08 -48.9451
4.4319141e+08 -48.8891
4.4319531e+08 -48.7247
4.4319922e+08 -48.8674
4.4320312e+08 -48.8662
4.4320703e+08 -48.9714
4.4321094e+08 -48.9159
4.4321484e+08 -49.0167
4.4321875e+08 -49.056
4.4322266e+08 -49.0332
4.4322656e+08 -49.1153
4.4323047e+08 -49.0212
4.4323438e+08 -49.0653
4.4323828e+08 -49.2185
4.4324219e+08 -48.6044
4.4324609e+08 -49.2482
4.4325e+08 -48.8927
4.4325391e+08 -49.2091
4.4325781e+08 -49.3035
4.4326172e+08 -48.9944
4.4326562e+08 -49.402
4.4326953e+08 -49.4005
4.4327344e+08 -49.3493
4.4327734e+08 -49.5025
4.4328125e+08 -49.5254
4.4328516e+08 -49.5464
4.4328906e+08 -49.6368
4.4329297e+08 -49.5029
4.4329688e+08 -49.5857
4.4330078e+08 -49.7288
4.4330469e+08 -49.7902
4.4330859e+08 -49.7797
4.433125e+08 -49.8923
4.4331641e+08 -49.6364
4.4332031e+08 -50.0411
4.4332422e+08 -50.0151
4.4332812e+08 -49.8396
4.4333203e+08 -50.1685
4.4333594e+08 -50.2154
4.4333984e+08 -50.2887
4.4334375e+08 -50.3039
4.4334766e+08 -50.3649
4.4335156e+08 -50.4681
4.4335547e+08 -50.4751
4.4335938e+08 -50.329
4.4336328e+08 -50.5723
4.4336719e+08 -50.6393
4.4337109e+08 -50.7131
4.43375e+08 -50.588
4.4337891e+08 -50.7043
4.4338281e+08 -50.8749
4.4338672e+08 -51.0203
4.4339062e+08 -51.107
4.4339453e+08 -51.1567
4.4339844e+08 -51.2471
4.4340234e+08 -51.2826
4.4340625e+08 -51.2411
4.4341016e+08 -51.3198
4.4341406e+08 -51.2075
4.4341797e+08 -51.4642
4.4342188e+08 -51.4534
4.4342578e+08 -50.9705
4.4342969e+08 -51.6173
4.4343359e+08 -51.6356
4.434375e+08 -51.7098
4.4344141e+08 -51.7993
4.4344531e+08 -51.8907
4.4344922e+08 -51.9118
4.4345312e+08 -51.9804
4.4345703e+08 -52.123
4.4346094e+08 -52.1228
4.4346484e+08 -52.1194
4.4346875e+08 -52.1958
4.4347266e+08 -52.1874
4.4347656e+08 -52.2628
4.4348047e+08 -52.0139
4.4348438e+08 -52.2947
4.4348828e+08 -52.3373
4.4349219e+08 -52.0995
4.4349609e+08 -52.2207


